13P_ph2
Post-Project, Mile 7.22 to Mile 7.34
13P_PH2.FLD

 DIST    B Horz   B Vert   B PROD    B MAX   E Horz   E Vert   E PROD    E MAX
 (Ft)     (mG)     (mG)     (mG)      (mG)   (kV/m)   (kV/m)   (kV/m)   (V/m)
 ----    ------   ------   ------    -----   ------   ------   ------   ------
-995.00    0.011    0.004    0.012    0.011    0.000    0.000    0.000    0.000
-990.00    0.011    0.004    0.012    0.011    0.000    0.000    0.000    0.000
-985.00    0.011    0.004    0.012    0.011    0.000    0.000    0.000    0.000
-980.00    0.011    0.004    0.012    0.012    0.000    0.000    0.000    0.000
-975.00    0.011    0.004    0.012    0.012    0.000    0.000    0.000    0.000
-970.00    0.012    0.004    0.012    0.012    0.000    0.000    0.000    0.000
-965.00    0.012    0.004    0.013    0.012    0.000    0.000    0.000    0.000
-960.00    0.012    0.004    0.013    0.012    0.000    0.000    0.000    0.000
-955.00    0.012    0.004    0.013    0.012    0.000    0.000    0.000    0.000
-950.00    0.012    0.004    0.013    0.013    0.000    0.000    0.000    0.000
-945.00    0.013    0.005    0.013    0.013    0.000    0.000    0.000    0.000
-940.00    0.013    0.005    0.014    0.013    0.000    0.000    0.000    0.000
-935.00    0.013    0.005    0.014    0.013    0.000    0.000    0.000    0.000
-930.00    0.013    0.005    0.014    0.014    0.000    0.000    0.000    0.000
-925.00    0.014    0.005    0.014    0.014    0.000    0.000    0.000    0.000
-920.00    0.014    0.005    0.015    0.014    0.000    0.000    0.000    0.000
-915.00    0.014    0.005    0.015    0.014    0.000    0.000    0.000    0.000
-910.00    0.014    0.005    0.015    0.014    0.000    0.000    0.000    0.000
-905.00    0.014    0.005    0.015    0.015    0.000    0.000    0.000    0.000
-900.00    0.015    0.005    0.016    0.015    0.000    0.000    0.000    0.000
-895.00    0.015    0.005    0.016    0.015    0.000    0.000    0.000    0.000
-890.00    0.015    0.005    0.016    0.015    0.000    0.000    0.000    0.000
-885.00    0.015    0.005    0.016    0.016    0.000    0.000    0.000    0.000
-880.00    0.016    0.005    0.017    0.016    0.000    0.000    0.000    0.000
-875.00    0.016    0.006    0.017    0.016    0.000    0.000    0.000    0.000
-870.00    0.016    0.006    0.017    0.017    0.000    0.000    0.000    0.000
-865.00    0.017    0.006    0.018    0.017    0.000    0.000    0.000    0.000
-860.00    0.017    0.006    0.018    0.017    0.000    0.000    0.000    0.000
-855.00    0.017    0.006    0.018    0.017    0.000    0.000    0.000    0.000
-850.00    0.018    0.006    0.019    0.018    0.000    0.000    0.000    0.000
-845.00    0.018    0.006    0.019    0.018    0.000    0.000    0.000    0.000
-840.00    0.018    0.006    0.019    0.018    0.000    0.000    0.000    0.000
-835.00    0.018    0.006    0.020    0.019    0.000    0.000    0.000    0.000
-830.00    0.019    0.006    0.020    0.019    0.000    0.000    0.000    0.000
-825.00    0.019    0.007    0.020    0.019    0.000    0.000    0.000    0.000
-820.00    0.020    0.007    0.021    0.020    0.000    0.000    0.000    0.000
-815.00    0.020    0.007    0.021    0.020    0.000    0.000    0.000    0.000
-810.00    0.020    0.007    0.021    0.020    0.000    0.000    0.000    0.000
-805.00    0.021    0.007    0.022    0.021    0.000    0.000    0.000    0.000
-800.00    0.021    0.007    0.022    0.021    0.000    0.000    0.000    0.000
-795.00    0.022    0.007    0.023    0.022    0.000    0.000    0.000    0.000
-790.00    0.022    0.007    0.023    0.022    0.000    0.000    0.000    0.000
-785.00    0.022    0.007    0.024    0.023    0.000    0.000    0.000    0.000
-780.00    0.023    0.008    0.024    0.023    0.000    0.000    0.000    0.000
-775.00    0.023    0.008    0.025    0.023    0.000    0.000    0.000    0.000
-770.00    0.024    0.008    0.025    0.024    0.000    0.000    0.000    0.000
-765.00    0.024    0.008    0.026    0.024    0.000    0.000    0.000    0.000
-760.00    0.025    0.008    0.026    0.025    0.000    0.000    0.000    0.000
-755.00    0.025    0.008    0.027    0.025    0.000    0.000    0.000    0.000
-750.00    0.026    0.008    0.027    0.026    0.000    0.000    0.000    0.000
-745.00    0.026    0.009    0.028    0.026    0.000    0.000    0.000    0.000
-740.00    0.027    0.009    0.028    0.027    0.000    0.000    0.000    0.000
-735.00    0.027    0.009    0.029    0.028    0.000    0.000    0.000    0.000
-730.00    0.028    0.009    0.029    0.028    0.000    0.000    0.000    0.000
-725.00    0.029    0.009    0.030    0.029    0.000    0.000    0.000    0.000
-720.00    0.029    0.010    0.031    0.029    0.000    0.000    0.000    0.000
-715.00    0.030    0.010    0.031    0.030    0.000    0.000    0.000    0.000
-710.00    0.030    0.010    0.032    0.031    0.000    0.000    0.000    0.000
-705.00    0.031    0.010    0.033    0.031    0.000    0.000    0.000    0.000
-700.00    0.032    0.010    0.033    0.032    0.000    0.000    0.000    0.000
-695.00    0.033    0.011    0.034    0.033    0.000    0.000    0.000    0.000
-690.00    0.033    0.011    0.035    0.033    0.000    0.000    0.000    0.000
-685.00    0.034    0.011    0.036    0.034    0.000    0.000    0.000    0.000
-680.00    0.035    0.011    0.037    0.035    0.000    0.000    0.000    0.000
-675.00    0.036    0.011    0.037    0.036    0.000    0.000    0.000    0.000
-670.00    0.036    0.012    0.038    0.037    0.000    0.000    0.000    0.000
-665.00    0.037    0.012    0.039    0.037    0.000    0.000    0.000    0.000
-660.00    0.038    0.012    0.040    0.038    0.000    0.000    0.000    0.000
-655.00    0.039    0.012    0.041    0.039    0.000    0.000    0.000    0.000
-650.00    0.040    0.013    0.042    0.040    0.000    0.000    0.000    0.000
-645.00    0.041    0.013    0.043    0.041    0.000    0.000    0.000    0.000
-640.00    0.042    0.013    0.044    0.042    0.000    0.000    0.000    0.000
-635.00    0.043    0.014    0.045    0.043    0.000    0.001    0.001    0.001
-630.00    0.044    0.014    0.046    0.044    0.000    0.001    0.001    0.001
-625.00    0.045    0.014    0.047    0.045    0.000    0.001    0.001    0.001
-620.00    0.046    0.015    0.049    0.046    0.000    0.001    0.001    0.001
-615.00    0.047    0.015    0.050    0.048    0.000    0.001    0.001    0.001
-610.00    0.049    0.015    0.051    0.049    0.000    0.001    0.001    0.001
-605.00    0.050    0.016    0.052    0.050    0.000    0.001    0.001    0.001
-600.00    0.051    0.016    0.054    0.051    0.000    0.001    0.001    0.001
-595.00    0.053    0.017    0.055    0.053    0.000    0.001    0.001    0.001
-590.00    0.054    0.017    0.057    0.054    0.000    0.001    0.001    0.001
-585.00    0.055    0.018    0.058    0.055    0.000    0.001    0.001    0.001
-580.00    0.057    0.018    0.060    0.057    0.000    0.001    0.001    0.001
-575.00    0.058    0.019    0.061    0.058    0.000    0.001    0.001    0.001
-570.00    0.060    0.019    0.063    0.060    0.000    0.001    0.001    0.001
-565.00    0.062    0.020    0.065    0.062    0.000    0.001    0.001    0.001
-560.00    0.063    0.020    0.067    0.063    0.000    0.001    0.001    0.001
-555.00    0.065    0.021    0.068    0.065    0.000    0.001    0.001    0.001
-550.00    0.067    0.021    0.070    0.067    0.000    0.001    0.001    0.001
-545.00    0.069    0.022    0.072    0.069    0.000    0.001    0.001    0.001
-540.00    0.071    0.023    0.075    0.071    0.000    0.001    0.001    0.001
-535.00    0.073    0.023    0.077    0.073    0.000    0.001    0.001    0.001
-530.00    0.075    0.024    0.079    0.075    0.000    0.001    0.001    0.001
-525.00    0.078    0.025    0.081    0.078    0.000    0.001    0.001    0.001
-520.00    0.080    0.025    0.084    0.080    0.000    0.001    0.001    0.001
-515.00    0.082    0.026    0.086    0.082    0.000    0.001    0.001    0.001
-510.00    0.085    0.027    0.089    0.085    0.000    0.001    0.001    0.001
-505.00    0.087    0.028    0.092    0.088    0.000    0.001    0.001    0.001
-500.00    0.090    0.029    0.095    0.090    0.000    0.001    0.001    0.001
-495.00    0.093    0.030    0.098    0.093    0.000    0.001    0.001    0.001
-490.00    0.096    0.031    0.101    0.096    0.000    0.001    0.001    0.001
-485.00    0.099    0.032    0.104    0.099    0.000    0.001    0.001    0.001
-480.00    0.102    0.033    0.108    0.103    0.000    0.001    0.001    0.001
-475.00    0.106    0.034    0.111    0.106    0.000    0.001    0.001    0.001
-470.00    0.109    0.035    0.115    0.110    0.000    0.001    0.001    0.001
-465.00    0.113    0.037    0.119    0.113    0.000    0.001    0.001    0.001
-460.00    0.117    0.038    0.123    0.117    0.000    0.001    0.001    0.001
-455.00    0.121    0.039    0.127    0.121    0.000    0.001    0.001    0.001
-450.00    0.125    0.041    0.132    0.125    0.000    0.001    0.001    0.001
-445.00    0.130    0.043    0.136    0.130    0.000    0.001    0.001    0.001
-440.00    0.134    0.044    0.141    0.135    0.000    0.001    0.001    0.001
-435.00    0.139    0.046    0.147    0.140    0.000    0.001    0.001    0.001
-430.00    0.144    0.048    0.152    0.145    0.000    0.001    0.001    0.001
-425.00    0.150    0.050    0.158    0.150    0.000    0.001    0.001    0.001
-420.00    0.155    0.052    0.164    0.156    0.000    0.001    0.001    0.001
-415.00    0.161    0.054    0.170    0.162    0.000    0.001    0.001    0.001
-410.00    0.167    0.056    0.177    0.168    0.000    0.001    0.001    0.001
-405.00    0.174    0.059    0.184    0.175    0.000    0.001    0.001    0.001
-400.00    0.181    0.062    0.191    0.182    0.000    0.001    0.001    0.001
-395.00    0.188    0.064    0.199    0.189    0.000    0.002    0.002    0.002
-390.00    0.196    0.067    0.207    0.197    0.000    0.002    0.002    0.002
-385.00    0.204    0.070    0.215    0.205    0.000    0.002    0.002    0.002
-380.00    0.212    0.074    0.225    0.214    0.000    0.002    0.002    0.002
-375.00    0.221    0.077    0.234    0.223    0.000    0.002    0.002    0.002
-370.00    0.231    0.081    0.244    0.233    0.000    0.002    0.002    0.002
-365.00    0.241    0.085    0.255    0.243    0.000    0.002    0.002    0.002
-360.00    0.251    0.090    0.267    0.254    0.000    0.002    0.002    0.002
-355.00    0.262    0.094    0.279    0.265    0.000    0.002    0.002    0.002
-350.00    0.274    0.099    0.292    0.278    0.000    0.002    0.002    0.002
-345.00    0.287    0.105    0.305    0.291    0.000    0.002    0.002    0.002
-340.00    0.300    0.111    0.320    0.304    0.000    0.002    0.002    0.002
-335.00    0.314    0.117    0.335    0.319    0.000    0.002    0.002    0.002
-330.00    0.330    0.124    0.352    0.335    0.000    0.002    0.002    0.002
-325.00    0.346    0.131    0.370    0.352    0.000    0.002    0.002    0.002
-320.00    0.363    0.139    0.388    0.369    0.000    0.003    0.003    0.003
-315.00    0.381    0.147    0.409    0.389    0.000    0.003    0.003    0.003
-310.00    0.401    0.156    0.430    0.409    0.000    0.003    0.003    0.003
-305.00    0.422    0.166    0.453    0.431    0.000    0.003    0.003    0.003
-300.00    0.444    0.177    0.478    0.455    0.000    0.003    0.003    0.003
-295.00    0.468    0.189    0.504    0.480    0.000    0.003    0.003    0.003
-290.00    0.494    0.201    0.533    0.507    0.000    0.003    0.003    0.003
-285.00    0.521    0.215    0.564    0.536    0.000    0.003    0.003    0.003
-280.00    0.551    0.231    0.597    0.568    0.000    0.004    0.004    0.004
-275.00    0.583    0.247    0.633    0.602    0.000    0.004    0.004    0.004
-270.00    0.617    0.266    0.672    0.639    0.000    0.004    0.004    0.004
-265.00    0.654    0.286    0.714    0.679    0.000    0.004    0.004    0.004
-260.00    0.694    0.308    0.759    0.722    0.000    0.004    0.004    0.004
-255.00    0.737    0.333    0.809    0.769    0.000    0.005    0.005    0.005
-250.00    0.784    0.360    0.863    0.820    0.000    0.005    0.005    0.005
-245.00    0.835    0.390    0.921    0.876    0.000    0.005    0.005    0.005
-240.00    0.890    0.423    0.986    0.937    0.000    0.005    0.005    0.005
-235.00    0.950    0.461    1.056    1.004    0.000    0.006    0.006    0.006
-230.00    1.016    0.502    1.133    1.077    0.000    0.006    0.006    0.006
-225.00    1.087    0.549    1.218    1.157    0.000    0.006    0.006    0.006
-220.00    1.166    0.601    1.311    1.246    0.000    0.007    0.007    0.007
-215.00    1.251    0.660    1.415    1.344    0.000    0.007    0.007    0.007
-210.00    1.345    0.727    1.529    1.452    0.000    0.008    0.008    0.008
-205.00    1.449    0.802    1.656    1.573    0.000    0.008    0.008    0.008
-200.00    1.563    0.888    1.797    1.707    0.000    0.009    0.009    0.009
-195.00    1.688    0.985    1.955    1.856    0.000    0.009    0.009    0.009
-190.00    1.827    1.097    2.131    2.024    0.000    0.010    0.010    0.010
-185.00    1.981    1.225    2.329    2.211    0.000    0.011    0.011    0.011
-180.00    2.152    1.373    2.553    2.423    0.000    0.011    0.011    0.011
-175.00    2.342    1.544    2.805    2.662    0.001    0.012    0.012    0.012
-170.00    2.553    1.743    3.092    2.934    0.001    0.013    0.013    0.013
-165.00    2.790    1.976    3.418    3.243    0.001    0.014    0.014    0.014
-160.00    3.054    2.248    3.792    3.597    0.001    0.015    0.015    0.015
-155.00    3.350    2.570    4.222    4.004    0.001    0.016    0.016    0.016
-150.00    3.681    2.950    4.718    4.474    0.001    0.018    0.018    0.018
-145.00    4.054    3.404    5.293    5.019    0.001    0.019    0.019    0.019
-140.00    4.472    3.947    5.965    5.654    0.001    0.021    0.021    0.021
-135.00    4.943    4.602    6.754    6.400    0.001    0.022    0.022    0.022
-130.00    5.471    5.396    7.685    7.280    0.001    0.024    0.024    0.024
-125.00    6.063    6.365    8.791    8.325    0.001    0.025    0.026    0.026
-120.00    6.725    7.556   10.115    9.575    0.001    0.027    0.027    0.027
-115.00    7.461    9.027   11.711   11.082    0.001    0.028    0.028    0.028
-110.00    8.272   10.860   13.652   12.913    0.001    0.029    0.030    0.029
-105.00    9.157   13.158   16.030   15.157    0.001    0.030    0.030    0.030
-100.00   10.108   16.057   18.974   17.931    0.002    0.029    0.029    0.029
 -95.00   11.111   19.739   22.651   21.397    0.004    0.026    0.027    0.026
 -90.00   12.158   24.438   27.295   25.773    0.007    0.022    0.023    0.022
 -85.00   13.277   30.456   33.224   31.360    0.011    0.018    0.021    0.018
 -80.00   14.652   38.166   40.882   38.582    0.019    0.030    0.035    0.033
 -75.00   16.916   47.999   50.892   48.036    0.030    0.064    0.070    0.070
 -70.00   21.681   60.359   64.135   60.578    0.048    0.123    0.133    0.132
 -65.00   31.879   75.387   81.850   77.436    0.076    0.221    0.234    0.233
 -60.00   51.629   92.298  105.757  100.356    0.118    0.375    0.393    0.392
 -55.00   86.338  107.796  138.109  131.710    0.175    0.610    0.635    0.634
 -50.00  142.013  112.898  181.421  174.283    0.234    0.948    0.977    0.975
 -45.00  218.978   90.829  237.069  229.888    0.251    1.369    1.392    1.390
 -40.00  294.701   64.134  301.599  295.454    0.151    1.735    1.742    1.740
 -35.00  314.247  177.890  361.104  356.852    0.168    1.772    1.780    1.777
 -30.00  234.777  300.555  381.384  378.683    0.432    1.319    1.388    1.370
 -25.00   57.237  339.012  343.810  340.965    0.561    0.739    0.928    0.770
 -20.00  175.291  339.426  382.017  379.548    0.505    1.053    1.168    1.125
 -15.00  289.857  238.514  375.374  371.759    0.280    1.645    1.669    1.663
 -10.00  310.019   96.517  324.695  319.185    0.092    1.806    1.808    1.806
  -5.00  250.714   73.243  261.193  254.282    0.228    1.535    1.552    1.551
   0.00  170.164  108.694  201.916  194.664    0.250    1.111    1.138    1.137
   5.00  105.517  112.141  153.979  147.248    0.200    0.733    0.759    0.758
  10.00   63.211   99.196  117.624  111.828    0.139    0.458    0.479    0.478
  15.00   38.284   82.174   90.654   85.868    0.091    0.274    0.289    0.289
  20.00   24.871   66.172   70.691   66.818    0.058    0.157    0.167    0.167
  25.00   18.383   52.704   55.818   52.706    0.036    0.084    0.091    0.091
  30.00   15.397   41.883   44.624   42.121    0.023    0.040    0.046    0.045
  35.00   13.786   33.363   36.099   34.077    0.014    0.020    0.024    0.021
  40.00   12.602   26.707   29.531   27.884    0.008    0.020    0.021    0.020
  45.00   11.533   21.513   24.410   23.058    0.005    0.025    0.025    0.025
  50.00   10.510   17.451   20.371   19.252    0.003    0.028    0.028    0.028
  55.00    9.536   14.258   17.153   16.217    0.002    0.030    0.030    0.030
  60.00    8.622   11.734   14.562   13.773    0.001    0.030    0.030    0.030
  65.00    7.780    9.727   12.456   11.786    0.001    0.029    0.029    0.029
  70.00    7.013    8.119   10.729   10.156    0.001    0.028    0.028    0.028
  75.00    6.322    6.823    9.301    8.808    0.001    0.026    0.026    0.026
  80.00    5.702    5.770    8.112    7.685    0.001    0.024    0.025    0.025
  85.00    5.149    4.910    7.114    6.741    0.001    0.023    0.023    0.023
  90.00    4.656    4.202    6.271    5.944    0.001    0.021    0.021    0.021
  95.00    4.217    3.616    5.555    5.266    0.001    0.020    0.020    0.020
 100.00    3.826    3.128    4.942    4.686    0.001    0.018    0.018    0.018
 105.00    3.479    2.719    4.415    4.188    0.001    0.017    0.017    0.017
 110.00    3.169    2.375    3.960    3.757    0.001    0.016    0.016    0.016
 115.00    2.892    2.083    3.564    3.382    0.001    0.015    0.015    0.015
 120.00    2.645    1.835    3.220    3.055    0.001    0.014    0.014    0.014
 125.00    2.424    1.623    2.917    2.769    0.001    0.013    0.013    0.013
 130.00    2.226    1.441    2.652    2.517    0.001    0.012    0.012    0.012
 135.00    2.048    1.284    2.417    2.295    0.000    0.011    0.011    0.011
 140.00    1.887    1.148    2.209    2.098    0.000    0.010    0.010    0.010
 145.00    1.742    1.030    2.024    1.922    0.000    0.010    0.010    0.010
 150.00    1.612    0.927    1.859    1.766    0.000    0.009    0.009    0.009
 155.00    1.493    0.837    1.712    1.626    0.000    0.008    0.008    0.008
 160.00    1.386    0.757    1.579    1.500    0.000    0.008    0.008    0.008
 165.00    1.288    0.687    1.460    1.387    0.000    0.007    0.007    0.007
 170.00    1.199    0.625    1.352    1.285    0.000    0.007    0.007    0.007
 175.00    1.118    0.570    1.255    1.192    0.000    0.007    0.007    0.007
 180.00    1.044    0.521    1.167    1.109    0.000    0.006    0.006    0.006
 185.00    0.976    0.478    1.087    1.033    0.000    0.006    0.006    0.006
 190.00    0.914    0.439    1.014    0.963    0.000    0.006    0.006    0.006
 195.00    0.857    0.404    0.947    0.900    0.000    0.005    0.005    0.005
 200.00    0.804    0.372    0.886    0.842    0.000    0.005    0.005    0.005
 205.00    0.756    0.344    0.830    0.789    0.000    0.005    0.005    0.005
 210.00    0.711    0.318    0.779    0.740    0.000    0.004    0.004    0.004
 215.00    0.670    0.295    0.732    0.696    0.000    0.004    0.004    0.004
 220.00    0.631    0.274    0.688    0.654    0.000    0.004    0.004    0.004
 225.00    0.596    0.255    0.648    0.616    0.000    0.004    0.004    0.004
 230.00    0.563    0.238    0.611    0.581    0.000    0.004    0.004    0.004
 235.00    0.533    0.222    0.577    0.549    0.000    0.004    0.004    0.004
 240.00    0.504    0.207    0.545    0.519    0.000    0.003    0.003    0.003
 245.00    0.478    0.194    0.516    0.491    0.000    0.003    0.003    0.003
 250.00    0.453    0.182    0.488    0.465    0.000    0.003    0.003    0.003
 255.00    0.430    0.171    0.463    0.440    0.000    0.003    0.003    0.003
 260.00    0.409    0.160    0.439    0.418    0.000    0.003    0.003    0.003
 265.00    0.389    0.151    0.417    0.397    0.000    0.003    0.003    0.003
 270.00    0.370    0.142    0.396    0.377    0.000    0.003    0.003    0.003
 275.00    0.352    0.134    0.377    0.359    0.000    0.003    0.003    0.003
 280.00    0.336    0.127    0.359    0.342    0.000    0.002    0.002    0.002
 285.00    0.320    0.120    0.342    0.325    0.000    0.002    0.002    0.002
 290.00    0.306    0.113    0.326    0.310    0.000    0.002    0.002    0.002
 295.00    0.292    0.107    0.311    0.296    0.000    0.002    0.002    0.002
 300.00    0.279    0.102    0.297    0.283    0.000    0.002    0.002    0.002
 305.00    0.267    0.096    0.284    0.270    0.000    0.002    0.002    0.002
 310.00    0.256    0.092    0.272    0.258    0.000    0.002    0.002    0.002
 315.00    0.245    0.087    0.260    0.247    0.000    0.002    0.002    0.002
 320.00    0.234    0.083    0.249    0.237    0.000    0.002    0.002    0.002
 325.00    0.225    0.079    0.238    0.227    0.000    0.002    0.002    0.002
 330.00    0.216    0.075    0.228    0.217    0.000    0.002    0.002    0.002
 335.00    0.207    0.072    0.219    0.209    0.000    0.002    0.002    0.002
 340.00    0.199    0.069    0.210    0.200    0.000    0.002    0.002    0.002
 345.00    0.191    0.066    0.202    0.192    0.000    0.002    0.002    0.002
 350.00    0.184    0.063    0.194    0.185    0.000    0.002    0.002    0.002
 355.00    0.177    0.060    0.187    0.178    0.000    0.001    0.001    0.001
 360.00    0.170    0.057    0.179    0.171    0.000    0.001    0.001    0.001
 365.00    0.164    0.055    0.173    0.164    0.000    0.001    0.001    0.001
 370.00    0.158    0.053    0.166    0.158    0.000    0.001    0.001    0.001
 375.00    0.152    0.051    0.160    0.152    0.000    0.001    0.001    0.001
 380.00    0.146    0.049    0.154    0.147    0.000    0.001    0.001    0.001
 385.00    0.141    0.047    0.149    0.142    0.000    0.001    0.001    0.001
 390.00    0.136    0.045    0.143    0.137    0.000    0.001    0.001    0.001
 395.00    0.131    0.043    0.138    0.132    0.000    0.001    0.001    0.001
 400.00    0.127    0.042    0.134    0.127    0.000    0.001    0.001    0.001
 405.00    0.123    0.040    0.129    0.123    0.000    0.001    0.001    0.001
 410.00    0.119    0.039    0.125    0.119    0.000    0.001    0.001    0.001
 415.00    0.115    0.037    0.121    0.115    0.000    0.001    0.001    0.001
 420.00    0.111    0.036    0.117    0.111    0.000    0.001    0.001    0.001
 425.00    0.107    0.035    0.113    0.107    0.000    0.001    0.001    0.001
 430.00    0.104    0.033    0.109    0.104    0.000    0.001    0.001    0.001
 435.00    0.100    0.032    0.106    0.101    0.000    0.001    0.001    0.001
 440.00    0.097    0.031    0.102    0.097    0.000    0.001    0.001    0.001
 445.00    0.094    0.030    0.099    0.094    0.000    0.001    0.001    0.001
 450.00    0.091    0.029    0.096    0.091    0.000    0.001    0.001    0.001
 455.00    0.089    0.028    0.093    0.089    0.000    0.001    0.001    0.001
 460.00    0.086    0.027    0.090    0.086    0.000    0.001    0.001    0.001
 465.00    0.083    0.027    0.087    0.083    0.000    0.001    0.001    0.001
 470.00    0.081    0.026    0.085    0.081    0.000    0.001    0.001    0.001
 475.00    0.078    0.025    0.082    0.078    0.000    0.001    0.001    0.001
 480.00    0.076    0.024    0.080    0.076    0.000    0.001    0.001    0.001
 485.00    0.074    0.024    0.078    0.074    0.000    0.001    0.001    0.001
 490.00    0.072    0.023    0.075    0.072    0.000    0.001    0.001    0.001
 495.00    0.070    0.022    0.073    0.070    0.000    0.001    0.001    0.001
 500.00    0.068    0.022    0.071    0.068    0.000    0.001    0.001    0.001
 505.00    0.066    0.021    0.069    0.066    0.000    0.001    0.001    0.001
 510.00    0.064    0.020    0.067    0.064    0.000    0.001    0.001    0.001
 515.00    0.062    0.020    0.065    0.062    0.000    0.001    0.001    0.001
 520.00    0.061    0.019    0.064    0.061    0.000    0.001    0.001    0.001
 525.00    0.059    0.019    0.062    0.059    0.000    0.001    0.001    0.001
 530.00    0.058    0.018    0.060    0.058    0.000    0.001    0.001    0.001
 535.00    0.056    0.018    0.059    0.056    0.000    0.001    0.001    0.001
 540.00    0.055    0.017    0.057    0.055    0.000    0.001    0.001    0.001
 545.00    0.053    0.017    0.056    0.053    0.000    0.001    0.001    0.001
 550.00    0.052    0.016    0.054    0.052    0.000    0.001    0.001    0.001
 555.00    0.050    0.016    0.053    0.051    0.000    0.001    0.001    0.001
 560.00    0.049    0.016    0.052    0.049    0.000    0.001    0.001    0.001
 565.00    0.048    0.015    0.050    0.048    0.000    0.001    0.001    0.001
 570.00    0.047    0.015    0.049    0.047    0.000    0.001    0.001    0.001
 575.00    0.046    0.014    0.048    0.046    0.000    0.001    0.001    0.001
 580.00    0.045    0.014    0.047    0.045    0.000    0.001    0.001    0.001
 585.00    0.043    0.014    0.046    0.043    0.000    0.001    0.001    0.001
 590.00    0.042    0.013    0.044    0.042    0.000    0.001    0.001    0.001
 595.00    0.041    0.013    0.043    0.041    0.000    0.000    0.000    0.000
 600.00    0.040    0.013    0.042    0.040    0.000    0.000    0.000    0.000
 605.00    0.039    0.013    0.041    0.040    0.000    0.000    0.000    0.000
 610.00    0.039    0.012    0.040    0.039    0.000    0.000    0.000    0.000
 615.00    0.038    0.012    0.040    0.038    0.000    0.000    0.000    0.000
 620.00    0.037    0.012    0.039    0.037    0.000    0.000    0.000    0.000
 625.00    0.036    0.012    0.038    0.036    0.000    0.000    0.000    0.000
 630.00    0.035    0.011    0.037    0.035    0.000    0.000    0.000    0.000
 635.00    0.034    0.011    0.036    0.034    0.000    0.000    0.000    0.000
 640.00    0.034    0.011    0.035    0.034    0.000    0.000    0.000    0.000
 645.00    0.033    0.011    0.035    0.033    0.000    0.000    0.000    0.000
 650.00    0.032    0.010    0.034    0.032    0.000    0.000    0.000    0.000
 655.00    0.031    0.010    0.033    0.032    0.000    0.000    0.000    0.000
 660.00    0.031    0.010    0.032    0.031    0.000    0.000    0.000    0.000
 665.00    0.030    0.010    0.032    0.030    0.000    0.000    0.000    0.000
 670.00    0.029    0.010    0.031    0.030    0.000    0.000    0.000    0.000
 675.00    0.029    0.009    0.030    0.029    0.000    0.000    0.000    0.000
 680.00    0.028    0.009    0.030    0.028    0.000    0.000    0.000    0.000
 685.00    0.028    0.009    0.029    0.028    0.000    0.000    0.000    0.000
 690.00    0.027    0.009    0.028    0.027    0.000    0.000    0.000    0.000
 695.00    0.026    0.009    0.028    0.027    0.000    0.000    0.000    0.000
 700.00    0.026    0.009    0.027    0.026    0.000    0.000    0.000    0.000
 705.00    0.025    0.008    0.027    0.026    0.000    0.000    0.000    0.000
 710.00    0.025    0.008    0.026    0.025    0.000    0.000    0.000    0.000
 715.00    0.024    0.008    0.026    0.025    0.000    0.000    0.000    0.000
 720.00    0.024    0.008    0.025    0.024    0.000    0.000    0.000    0.000
 725.00    0.023    0.008    0.025    0.024    0.000    0.000    0.000    0.000
 730.00    0.023    0.008    0.024    0.023    0.000    0.000    0.000    0.000
 735.00    0.023    0.008    0.024    0.023    0.000    0.000    0.000    0.000
 740.00    0.022    0.007    0.023    0.022    0.000    0.000    0.000    0.000
 745.00    0.022    0.007    0.023    0.022    0.000    0.000    0.000    0.000
 750.00    0.021    0.007    0.022    0.021    0.000    0.000    0.000    0.000
 755.00    0.021    0.007    0.022    0.021    0.000    0.000    0.000    0.000
 760.00    0.020    0.007    0.022    0.021    0.000    0.000    0.000    0.000
 765.00    0.020    0.007    0.021    0.020    0.000    0.000    0.000    0.000
 770.00    0.020    0.007    0.021    0.020    0.000    0.000    0.000    0.000
 775.00    0.019    0.007    0.020    0.020    0.000    0.000    0.000    0.000
 780.00    0.019    0.006    0.020    0.019    0.000    0.000    0.000    0.000
 785.00    0.019    0.006    0.020    0.019    0.000    0.000    0.000    0.000
 790.00    0.018    0.006    0.019    0.018    0.000    0.000    0.000    0.000
 795.00    0.018    0.006    0.019    0.018    0.000    0.000    0.000    0.000
 800.00    0.018    0.006    0.019    0.018    0.000    0.000    0.000    0.000
 805.00    0.017    0.006    0.018    0.018    0.000    0.000    0.000    0.000
 810.00    0.017    0.006    0.018    0.017    0.000    0.000    0.000    0.000
 815.00    0.017    0.006    0.018    0.017    0.000    0.000    0.000    0.000
 820.00    0.016    0.006    0.017    0.017    0.000    0.000    0.000    0.000
 825.00    0.016    0.006    0.017    0.016    0.000    0.000    0.000    0.000
 830.00    0.016    0.006    0.017    0.016    0.000    0.000    0.000    0.000
 835.00    0.016    0.005    0.016    0.016    0.000    0.000    0.000    0.000
 840.00    0.015    0.005    0.016    0.016    0.000    0.000    0.000    0.000
 845.00    0.015    0.005    0.016    0.015    0.000    0.000    0.000    0.000
 850.00    0.015    0.005    0.016    0.015    0.000    0.000    0.000    0.000
 855.00    0.015    0.005    0.015    0.015    0.000    0.000    0.000    0.000
 860.00    0.014    0.005    0.015    0.015    0.000    0.000    0.000    0.000
 865.00    0.014    0.005    0.015    0.014    0.000    0.000    0.000    0.000
 870.00    0.014    0.005    0.015    0.014    0.000    0.000    0.000    0.000
 875.00    0.014    0.005    0.014    0.014    0.000    0.000    0.000    0.000
 880.00    0.013    0.005    0.014    0.014    0.000    0.000    0.000    0.000
 885.00    0.013    0.005    0.014    0.013    0.000    0.000    0.000    0.000
 890.00    0.013    0.005    0.014    0.013    0.000    0.000    0.000    0.000
 895.00    0.013    0.005    0.014    0.013    0.000    0.000    0.000    0.000
 900.00    0.013    0.005    0.013    0.013    0.000    0.000    0.000    0.000
 905.00    0.012    0.004    0.013    0.013    0.000    0.000    0.000    0.000
 910.00    0.012    0.004    0.013    0.012    0.000    0.000    0.000    0.000
 915.00    0.012    0.004    0.013    0.012    0.000    0.000    0.000    0.000
 920.00    0.012    0.004    0.013    0.012    0.000    0.000    0.000    0.000
 925.00    0.012    0.004    0.012    0.012    0.000    0.000    0.000    0.000
 930.00    0.011    0.004    0.012    0.012    0.000    0.000    0.000    0.000
 935.00    0.011    0.004    0.012    0.011    0.000    0.000    0.000    0.000
 940.00    0.011    0.004    0.012    0.011    0.000    0.000    0.000    0.000
 945.00    0.011    0.004    0.012    0.011    0.000    0.000    0.000    0.000
 950.00    0.011    0.004    0.011    0.011    0.000    0.000    0.000    0.000
 955.00    0.011    0.004    0.011    0.011    0.000    0.000    0.000    0.000
 960.00    0.010    0.004    0.011    0.011    0.000    0.000    0.000    0.000
 965.00    0.010    0.004    0.011    0.010    0.000    0.000    0.000    0.000
 970.00    0.010    0.004    0.011    0.010    0.000    0.000    0.000    0.000
 975.00    0.010    0.004    0.011    0.010    0.000    0.000    0.000    0.000
 980.00    0.010    0.004    0.010    0.010    0.000    0.000    0.000    0.000
 985.00    0.010    0.004    0.010    0.010    0.000    0.000    0.000    0.000
 990.00    0.009    0.004    0.010    0.010    0.000    0.000    0.000    0.000
 995.00    0.009    0.004    0.010    0.010    0.000    0.000    0.000    0.000
